# Step     T (K)     E_KS (eV)    E_tot (eV)   Vol (A^3)    P (kBar)
     1      0.00   -1011.28331   -1011.27495    1000.000      23.335
     2    188.53   -1011.83436   -1011.62820    1000.000       6.048
     3    149.87   -1012.38958   -1011.86859    1000.000       2.196
     4     18.14   -1012.51134   -1011.78435    1000.000       6.015
     5      8.27   -1012.59888   -1011.82820    1000.000       1.378
     6      4.24   -1012.61770   -1011.83236    1000.000       1.787
     7      2.34   -1012.61858   -1011.82929    1000.000       1.694
     8      3.48   -1012.62295   -1011.83073    1000.000       0.281
     9      5.79   -1012.62274   -1011.83104    1000.000      -0.487
    10     12.17   -1012.61178   -1011.82943    1000.000      -0.463
    11     47.97   -1012.59542   -1011.85312    1000.000      -3.371
    12    110.11   -1012.47411   -1011.86224    1000.000      -7.900
    13     87.91   -1012.23315   -1011.79012    1000.000      -7.504
    14     29.41   -1012.14697   -1011.80806    1000.000     -12.638
    15     53.24   -1012.10088   -1011.76460    1000.000     -14.464
    16    179.00   -1012.40181   -1011.91977    1000.000      -5.991
    17     93.28   -1012.59074   -1011.91422    1000.000      -2.009
    18     12.13   -1012.61005   -1011.84777    1000.000      -1.544
    19      3.12   -1012.62184   -1011.84823    1000.000       0.047
    20      1.24   -1012.62164   -1011.84668    1000.000       0.585
    21      1.22   -1012.62186   -1011.84658    1000.000       0.266
    22      3.28   -1012.62298   -1011.84774    1000.000       0.595
    23     13.77   -1012.61679   -1011.84899    1000.000       1.406
    24     84.40   -1012.60028   -1011.89201    1000.000      -0.291
    25    179.64   -1012.53538   -1011.94706    1000.000      -0.996
    26     85.29   -1012.40049   -1011.84768    1000.000       0.585
    27     18.75   -1012.40197   -1011.83641    1000.000      -2.084
    28     21.36   -1012.43339   -1011.83967    1000.000      -1.553
    29     38.30   -1012.47028   -1011.84045    1000.000       0.241
    30     55.91   -1012.51483   -1011.85247    1000.000      -0.359
    31     61.48   -1012.54220   -1011.85255    1000.000      -0.042
    32     57.15   -1012.57148   -1011.85080    1000.000       1.481
    33     48.50   -1012.60515   -1011.85349    1000.000       0.907
    34     36.75   -1012.61751   -1011.84862    1000.000       0.343
    35     27.86   -1012.61830   -1011.84716    1000.000       0.791
    36     22.14   -1012.60659   -1011.84673    1000.000       0.199
    37     19.92   -1012.58210   -1011.84409    1000.000      -1.023
    38     31.53   -1012.55915   -1011.85061    1000.000      -0.720
    39     74.65   -1012.51942   -1011.86587    1000.000      -0.474
    40    112.06   -1012.43581   -1011.86278    1000.000      -3.258
    41     75.94   -1012.37784   -1011.85632    1000.000      -1.433
    42     13.92   -1012.29006   -1011.81844    1000.000       0.309
    43     16.54   -1012.29642   -1011.82412    1000.000      -1.221
    44     85.95   -1012.37190   -1011.85438    1000.000      -0.014
    45    128.56   -1012.44777   -1011.86336    1000.000       3.758
    46     70.03   -1012.54217   -1011.86090    1000.000       1.033
    47     24.33   -1012.58218   -1011.84502    1000.000       1.498
    48     12.35   -1012.59352   -1011.83680    1000.000       1.925
    49     14.54   -1012.61049   -1011.83976    1000.000       0.484
    50     22.08   -1012.61853   -1011.84049    1000.000      -0.373
    51     37.99   -1012.61585   -1011.84269    1000.000      -0.097
    52     63.74   -1012.60634   -1011.85573    1000.000      -1.666
    53     73.37   -1012.56252   -1011.85181    1000.000      -2.631
    54     58.01   -1012.51854   -1011.84270    1000.000      -0.940
    55     39.97   -1012.49576   -1011.84347    1000.000      -0.993
    56     27.62   -1012.46174   -1011.83337    1000.000      -1.169
    57     32.70   -1012.44926   -1011.83927    1000.000       1.499
    58     53.03   -1012.42362   -1011.84097    1000.000       3.274
    59     92.73   -1012.39095   -1011.83382    1000.000       2.164
    60    119.97   -1012.48119   -1011.88203    1000.000       4.881
    61     71.56   -1012.54539   -1011.85695    1000.000       4.844
    62     30.13   -1012.59211   -1011.84166    1000.000       1.703
    63     16.19   -1012.61821   -1011.84222    1000.000       1.393
    64      9.53   -1012.61893   -1011.83857    1000.000       0.952
    65      8.31   -1012.61718   -1011.83942    1000.000      -0.815
    66      9.98   -1012.60861   -1011.84038    1000.000      -1.709
    67     12.94   -1012.57637   -1011.83130    1000.000      -1.216
    68     51.41   -1012.54994   -1011.86131    1000.000      -4.932
    69    125.79   -1012.37904   -1011.85553    1000.000      -9.525
    70     97.04   -1012.00609   -1011.67420    1000.000      -5.277
    71     77.40   -1012.09779   -1011.79776    1000.000     -13.918
    72     76.28   -1012.13395   -1011.77854    1000.000     -13.200
    73     90.03   -1012.32857   -1011.83024    1000.000      -4.526
    74     61.67   -1012.53478   -1011.89073    1000.000      -4.604
    75     24.10   -1012.57996   -1011.86619    1000.000      -2.979
    76     12.96   -1012.60370   -1011.86382    1000.000      -0.453
    77      9.51   -1012.61341   -1011.86467    1000.000       0.164
    78      8.63   -1012.61083   -1011.86251    1000.000       0.531
    79     15.29   -1012.60859   -1011.86498    1000.000       1.990
    80     47.33   -1012.59981   -1011.87636    1000.000       2.850
    81    118.70   -1012.57437   -1011.90324    1000.000       1.393
    82    125.77   -1012.57664   -1011.91712    1000.000       1.934
    83     47.24   -1012.55883   -1011.87258    1000.000       1.280
    84     11.07   -1012.55170   -1011.86087    1000.000      -0.679
    85      5.90   -1012.55320   -1011.86229    1000.000      -0.485
    86     11.27   -1012.55306   -1011.86007    1000.000       0.063
    87     45.85   -1012.56645   -1011.87234    1000.000      -1.095
    88    112.36   -1012.57862   -1011.90512    1000.000      -0.688
    89    105.96   -1012.55610   -1011.88900    1000.000       1.507
    90     44.16   -1012.55459   -1011.86979    1000.000       0.080
    91     15.62   -1012.55078   -1011.86122    1000.000       0.249
    92     13.92   -1012.55278   -1011.85830    1000.000       1.176
    93     32.56   -1012.57207   -1011.86596    1000.000       0.107
    94     69.63   -1012.58640   -1011.87649    1000.000      -0.688
    95     90.25   -1012.59244   -1011.88407    1000.000       0.374
    96     63.01   -1012.59073   -1011.87697    1000.000      -0.772
    97     30.85   -1012.57816   -1011.86317    1000.000      -1.354
    98     20.52   -1012.57638   -1011.86220    1000.000      -0.149
    99     23.40   -1012.57518   -1011.86433    1000.000       0.127
   100     37.70   -1012.56303   -1011.86504    1000.000      -0.165
# Step     T (K)     E_KS (eV)    E_tot (eV)   Vol (A^3)    P (kBar)
     1     37.70   -1012.54599   -1012.49239    1000.000       1.644
     2     15.14   -1012.51279   -1012.49127    1000.000       1.700
     3      9.84   -1012.50466   -1012.49067    1000.000       1.678
     4     26.66   -1012.52944   -1012.49154    1000.000       1.661
     5     52.59   -1012.56898   -1012.49420    1000.000       0.362
     6     69.28   -1012.59286   -1012.49436    1000.000      -0.737
     7     69.76   -1012.59292   -1012.49373    1000.000      -1.042
     8     59.30   -1012.57754   -1012.49323    1000.000      -1.684
     9     48.66   -1012.56094   -1012.49175    1000.000      -1.925
    10     44.55   -1012.55586   -1012.49253    1000.000      -0.819
    11     43.43   -1012.55507   -1012.49331    1000.000      -0.013
    12     39.96   -1012.54963   -1012.49282    1000.000       0.550
    13     34.08   -1012.54139   -1012.49294    1000.000       1.760
    14     30.73   -1012.53545   -1012.49175    1000.000       2.218
    15     36.09   -1012.54306   -1012.49175    1000.000       1.423
    16     48.08   -1012.56179   -1012.49343    1000.000       0.962
    17     56.78   -1012.57399   -1012.49326    1000.000       0.244
    18     56.12   -1012.57359   -1012.49380    1000.000      -1.252
    19     46.78   -1012.55982   -1012.49332    1000.000      -1.713
    20     35.86   -1012.54271   -1012.49172    1000.000      -1.335
    21     32.07   -1012.53787   -1012.49226    1000.000      -1.348
    22     37.50   -1012.54570   -1012.49238    1000.000      -0.610
    23     47.10   -1012.55966   -1012.49270    1000.000       0.850
    24     52.67   -1012.56874   -1012.49385    1000.000       1.294
    25     51.64   -1012.56597   -1012.49255    1000.000       1.546
    26     48.52   -1012.56139   -1012.49240    1000.000       1.988
    27     47.87   -1012.56069   -1012.49263    1000.000       1.205
    28     52.14   -1012.56630   -1012.49217    1000.000      -0.060
    29     58.33   -1012.57683   -1012.49390    1000.000      -0.515
    30     56.26   -1012.57432   -1012.49433    1000.000      -1.277
    31     42.09   -1012.55291   -1012.49307    1000.000      -2.056
    32     23.81   -1012.52661   -1012.49277    1000.000      -1.358
    33     12.26   -1012.50869   -1012.49125    1000.000      -0.392
    34     17.23   -1012.51581   -1012.49132    1000.000      -0.009
    35     38.03   -1012.54701   -1012.49294    1000.000       1.164
    36     62.28   -1012.58213   -1012.49357    1000.000       2.205
    37     75.63   -1012.60231   -1012.49478    1000.000       1.677
    38     71.97   -1012.59649   -1012.49417    1000.000       1.177
    39     56.83   -1012.57330   -1012.49249    1000.000       0.735
    40     41.10   -1012.55095   -1012.49252    1000.000      -0.769
    41     33.33   -1012.53915   -1012.49176    1000.000      -1.680
    42     36.49   -1012.54403   -1012.49214    1000.000      -1.500
    43     44.08   -1012.55663   -1012.49396    1000.000      -1.566
    44     46.00   -1012.55887   -1012.49347    1000.000      -1.257
    45     41.13   -1012.55129   -1012.49281    1000.000       0.247
    46     35.60   -1012.54286   -1012.49224    1000.000       1.138
    47     36.93   -1012.54429   -1012.49178    1000.000       1.435
    48     45.85   -1012.55818   -1012.49299    1000.000       2.036
    49     55.36   -1012.57224   -1012.49353    1000.000       1.713
    50     57.78   -1012.57576   -1012.49361    1000.000       0.469
    51     50.40   -1012.56522   -1012.49357    1000.000      -0.128
    52     38.51   -1012.54678   -1012.49202    1000.000      -0.808
    53     32.91   -1012.53855   -1012.49176    1000.000      -1.897
    54     38.31   -1012.54715   -1012.49268    1000.000      -1.759
    55     48.44   -1012.56185   -1012.49298    1000.000      -1.003
    56     55.83   -1012.57295   -1012.49357    1000.000      -0.585
    57     56.83   -1012.57395   -1012.49315    1000.000       0.478
    58     53.79   -1012.56850   -1012.49202    1000.000       1.865
    59     52.51   -1012.56729   -1012.49263    1000.000       1.884
    60     53.89   -1012.56959   -1012.49298    1000.000       1.623
    61     51.84   -1012.56710   -1012.49339    1000.000       1.417
    62     40.20   -1012.55068   -1012.49353    1000.000       0.062
    63     23.47   -1012.52509   -1012.49172    1000.000      -1.151
    64     14.53   -1012.51151   -1012.49085    1000.000      -1.278
    65     22.77   -1012.52383   -1012.49145    1000.000      -1.580
    66     46.03   -1012.55758   -1012.49213    1000.000      -1.671
    67     70.69   -1012.59487   -1012.49436    1000.000      -0.396
    68     78.66   -1012.60623   -1012.49439    1000.000       0.692
    69     66.51   -1012.58677   -1012.49221    1000.000       1.068
    70     48.47   -1012.56036   -1012.49145    1000.000       1.923
    71     39.17   -1012.54651   -1012.49082    1000.000       2.115
    72     42.26   -1012.55177   -1012.49168    1000.000       0.992
    73     49.76   -1012.56410   -1012.49334    1000.000       0.180
    74     49.61   -1012.56380   -1012.49327    1000.000      -0.540
    75     38.38   -1012.54736   -1012.49280    1000.000      -1.708
    76     25.93   -1012.52823   -1012.49136    1000.000      -1.995
    77     25.41   -1012.52665   -1012.49052    1000.000      -1.082
    78     40.21   -1012.54948   -1012.49230    1000.000      -0.705
    79     59.31   -1012.57758   -1012.49326    1000.000       0.186
    80     69.28   -1012.59213   -1012.49364    1000.000       1.674
    81     63.22   -1012.58358   -1012.49370    1000.000       1.874
    82     45.83   -1012.55705   -1012.49189    1000.000       1.555
    83     30.95   -1012.53510   -1012.49111    1000.000       1.430
    84     28.15   -1012.53158   -1012.49156    1000.000       0.371
    85     36.98   -1012.54436   -1012.49178    1000.000      -1.063
    86     50.22   -1012.56446   -1012.49306    1000.000      -1.320
    87     59.14   -1012.57743   -1012.49334    1000.000      -1.501
    88     59.84   -1012.57785   -1012.49277    1000.000      -1.771
    89     55.35   -1012.57135   -1012.49264    1000.000      -0.891
    90     49.89   -1012.56271   -1012.49178    1000.000       0.313
    91     45.56   -1012.55731   -1012.49253    1000.000       0.819
    92     39.73   -1012.54931   -1012.49282    1000.000       1.717
    93     32.15   -1012.53733   -1012.49161    1000.000       2.361
    94     27.08   -1012.53057   -1012.49206    1000.000       1.474
    95     27.72   -1012.53093   -1012.49151    1000.000       0.546
    96     36.29   -1012.54294   -1012.49135    1000.000       0.006
    97     50.64   -1012.56488   -1012.49288    1000.000      -1.207
    98     62.37   -1012.58164   -1012.49297    1000.000      -1.955
    99     65.17   -1012.58560   -1012.49294    1000.000      -1.498
   100     59.30   -1012.57703   -1012.49273    1000.000      -1.034
   101     50.70   -1012.56344   -1012.49136    1000.000      -0.533
   102     45.76   -1012.55682   -1012.49176    1000.000       0.948
   103     45.14   -1012.55585   -1012.49166    1000.000       1.751
   104     45.75   -1012.55737   -1012.49232    1000.000       1.561
   105     41.62   -1012.55213   -1012.49296    1000.000       1.711
   106     31.12   -1012.53555   -1012.49130    1000.000       1.181
   107     24.32   -1012.52524   -1012.49066    1000.000      -0.223
   108     30.02   -1012.53373   -1012.49105    1000.000      -0.830
   109     46.75   -1012.55787   -1012.49140    1000.000      -1.089
   110     64.68   -1012.58510   -1012.49314    1000.000      -1.793
   111     70.82   -1012.59434   -1012.49365    1000.000      -1.380
   112     58.93   -1012.57621   -1012.49243    1000.000      -0.218
   113     37.04   -1012.54389   -1012.49123    1000.000       0.367
   114     22.70   -1012.52190   -1012.48962    1000.000       1.029
   115     27.01   -1012.52869   -1012.49028    1000.000       1.981
   116     44.98   -1012.55581   -1012.49186    1000.000       1.665
   117     62.88   -1012.58207   -1012.49266    1000.000       0.811
   118     68.30   -1012.59049   -1012.49338    1000.000       0.415
   119     57.35   -1012.57371   -1012.49216    1000.000      -0.582
   120     42.20   -1012.55032   -1012.49032    1000.000      -1.619
   121     36.62   -1012.54279   -1012.49072    1000.000      -1.411
   122     40.18   -1012.54865   -1012.49153    1000.000      -1.047
   123     43.76   -1012.55410   -1012.49189    1000.000      -0.910
   124     41.50   -1012.55092   -1012.49191    1000.000       0.218
   125     33.68   -1012.53898   -1012.49109    1000.000       1.267
   126     27.25   -1012.52888   -1012.49013    1000.000       1.350
   127     32.87   -1012.53685   -1012.49012    1000.000       1.605
   128     50.88   -1012.56376   -1012.49143    1000.000       1.600
   129     67.27   -1012.58884   -1012.49320    1000.000       0.371
   130     70.68   -1012.59335   -1012.49285    1000.000      -0.570
   131     62.81   -1012.58098   -1012.49168    1000.000      -0.889
   132     51.49   -1012.56464   -1012.49143    1000.000      -1.714
   133     43.64   -1012.55285   -1012.49081    1000.000      -1.846
   134     42.09   -1012.55097   -1012.49112    1000.000      -0.760
   135     41.34   -1012.55111   -1012.49233    1000.000       0.046
   136     34.54   -1012.54045   -1012.49135    1000.000       0.606
   137     26.44   -1012.52782   -1012.49023    1000.000       1.835
   138     27.94   -1012.52987   -1012.49015    1000.000       2.093
   139     42.02   -1012.55052   -1012.49078    1000.000       1.295
   140     60.88   -1012.57898   -1012.49243    1000.000       0.886
   141     71.75   -1012.59513   -1012.49312    1000.000       0.188
   142     65.49   -1012.58591   -1012.49279    1000.000      -1.242
   143     45.64   -1012.55626   -1012.49137    1000.000      -1.513
   144     28.20   -1012.52958   -1012.48949    1000.000      -1.227
   145     27.87   -1012.52972   -1012.49009    1000.000      -1.374
   146     42.30   -1012.55169   -1012.49155    1000.000      -0.623
   147     58.01   -1012.57434   -1012.49185    1000.000       0.804
   148     64.18   -1012.58401   -1012.49276    1000.000       1.192
   149     57.41   -1012.57370   -1012.49207    1000.000       1.529
   150     44.32   -1012.55334   -1012.49032    1000.000       2.014
   151     37.83   -1012.54436   -1012.49057    1000.000       1.150
   152     42.51   -1012.55150   -1012.49106    1000.000      -0.056
   153     50.38   -1012.56369   -1012.49206    1000.000      -0.451
   154     51.14   -1012.56568   -1012.49297    1000.000      -1.189
   155     42.41   -1012.55193   -1012.49164    1000.000      -1.905
   156     30.73   -1012.53494   -1012.49124    1000.000      -1.160
   157     24.44   -1012.52506   -1012.49031    1000.000      -0.396
   158     31.68   -1012.53511   -1012.49008    1000.000       0.007
   159     50.89   -1012.56441   -1012.49205    1000.000       1.153
   160     68.84   -1012.59016   -1012.49228    1000.000       1.982
   161     75.75   -1012.59991   -1012.49221    1000.000       1.382
   162     71.01   -1012.59395   -1012.49300    1000.000       1.146
   163     56.06   -1012.57091   -1012.49121    1000.000       0.733
   164     39.56   -1012.54688   -1012.49063    1000.000      -0.706
   165     30.35   -1012.53433   -1012.49119    1000.000      -1.427
   166     27.72   -1012.52992   -1012.49051    1000.000      -1.278
   167     29.11   -1012.53304   -1012.49164    1000.000      -1.620
   168     33.47   -1012.53870   -1012.49111    1000.000      -1.216
   169     41.35   -1012.54966   -1012.49087    1000.000       0.327
   170     49.29   -1012.56230   -1012.49222    1000.000       1.083
   171     55.29   -1012.56981   -1012.49121    1000.000       1.442
   172     60.48   -1012.57806   -1012.49206    1000.000       2.201
   173     59.27   -1012.57753   -1012.49325    1000.000       1.676
   174     48.93   -1012.56080   -1012.49123    1000.000       0.312
   175     38.28   -1012.54562   -1012.49120    1000.000      -0.255
   176     34.26   -1012.53993   -1012.49123    1000.000      -1.036
   177     38.22   -1012.54505   -1012.49071    1000.000      -2.050
   178     48.40   -1012.56127   -1012.49246    1000.000      -1.681
   179     55.68   -1012.57153   -1012.49236    1000.000      -0.836
   180     53.95   -1012.56914   -1012.49244    1000.000      -0.404
   181     45.82   -1012.55729   -1012.49215    1000.000       0.631
   182     40.65   -1012.54783   -1012.49004    1000.000       1.928
   183     43.60   -1012.55353   -1012.49154    1000.000       1.754
   184     48.54   -1012.56164   -1012.49263    1000.000       1.499
   185     48.01   -1012.56021   -1012.49195    1000.000       1.362
   186     38.59   -1012.54783   -1012.49296    1000.000       0.049
   187     24.20   -1012.52548   -1012.49108    1000.000      -1.104
